fHI	fHeI	fHeII	z	T(K)
0.1	0.1	0.9	10	100
Photon Energy	f_ion	f_heat	f_exc	n_Lya	n_{ion,HI}	n_{ion,HeI}	n_{ion,HeII}	Shull heating
10	0	1	0	0	0	0	0	1
10.2	0	1.00001	0	0	0	0	0	1
10.404	0	1.00001	0	0	0	0	0	1
10.6121	0	1.00001	0	0	0	0	0	1
10.8243	0	1.00001	0	0	0	0	0	1
11.0408	0	0.999917	9.2371e-05	0.0001	0	0	0	0.995818
11.2616	0	1.00001	8.20228e-10	1e-08	0	0	0	0.995754
11.4869	0	1.00001	7.14058e-15	1e-12	0	0	0	0.99569
11.7166	0	1.00001	6.09441e-20	1e-16	0	0	0	0.995626
11.9509	0	1.00001	5.09953e-25	1e-20	0	0	0	0.995564
12.1899	0	1.00001	4.18339e-30	1e-24	0	0	0	0.995503
12.4337	0	1.00001	3.36455e-35	1e-28	0	0	0	0.995442
12.6824	0	0.999927	8.04145e-05	1e-32	0	0	0	0.995383
12.9361	0	1.00001	6.2163e-10	1e-36	0	0	0	0.995324
13.1948	0	1.00001	4.71118e-15	1e-40	0	0	0	0.995266
13.4587	0	0.999932	7.57764e-05	1e-44	0	0	0	0.995208
13.7279	0	1.00001	5.5199e-10	1e-48	0	0	0	0.995152
14.0024	0	0.999789	0.000218502	0.0001	0	0	0	0.995096
14.2825	0	1.00001	1.52986e-09	1e-08	0	0	0	0.995041
14.5681	0	0.999832	0.000175014	0.0001	0	0	0	0.994987
14.8595	0	0.999938	6.86342e-05	0.00010001	0	0	0	0.994933
15.1567	0	1.00001	4.52832e-10	1.0001e-08	0	0	0	0.994881
15.4598	8.79572e-05	0.999853	6.59679e-05	0.0001	0.0001	0	0	0.994829
15.769	8.62325e-09	0.999877	0.000129349	0.00010001	1e-08	0	0	0.994778
16.0844	8.45417e-13	0.999864	0.000142665	0.00010001	1e-12	0	0	0.994727
16.4061	8.2884e-17	0.999944	6.21639e-05	0.00010001	1e-16	0	0	0.994677
16.7342	8.12588e-21	0.999945	6.09445e-05	1.0001e-08	1e-20	0	0	0.994628
17.0689	7.96655e-25	0.999871	0.000134436	0.0001	1e-24	0	0	0.994579
17.4102	0.000156207	0.999604	0.000245159	0.00030001	0.0002	0	0	0.994532
17.7584	1.53144e-08	0.999891	0.000114859	0.00020003	2e-08	0	0	0.994484
18.1136	1.50141e-12	1.00001	6.34105e-10	2.0003e-08	2e-12	0	0	0.994438
18.4759	1.47197e-16	0.999867	0.000137997	0.0002	2e-16	0	0	0.994392
18.8454	1.44311e-20	0.999938	6.76465e-05	0.00010002	2e-20	0	0	0.994347
19.2223	1.41481e-24	0.99973	0.000275103	0.00040001	2e-24	0	0	0.994302
19.6068	1.38707e-28	0.999901	0.000104032	0.00010004	2e-28	0	0	0.994258
19.9989	1.35988e-32	0.999814	0.000191233	0.00020001	2e-32	0	0	0.994215
20.3989	1.33321e-36	0.999855	0.000149987	0.00020002	2e-36	0	0	0.994172
20.8069	1.30707e-40	0.999907	9.80309e-05	0.00010002	2e-40	0	0	0.99413
21.223	0.000128144	0.999658	0.000218913	0.00020001	0.0002	0	0	0.994088
21.6474	1.25631e-08	0.999746	0.000259116	0.00030002	2e-08	0	0	0.994047
22.0804	1.23168e-12	0.999904	0.000100931	0.00020003	2e-12	0	0	0.994006
22.522	6.03765e-05	0.999596	0.000348004	0.00060002	0.0001	0	0	0.993966
22.9724	5.91986e-05	0.999601	0.000344059	0.00050006	0.00010001	0	0	0.993927
23.4319	5.80378e-09	0.999689	0.000315551	0.00050005	1.0001e-08	0	0	0.993888
23.9005	5.68941e-05	0.999819	0.000128013	0.00020005	0.0001	0	0	0.99385
24.3785	5.57786e-09	0.999826	0.000177795	0.00040002	1e-08	0	0	0.993812
24.8661	5.46849e-05	0.999808	0.00014089	0.00010004	0.0001	0	0	0.993775
25.3634	0.000107231	0.999593	0.000303805	0.00060001	0.00020001	0	0	0.993738
25.8707	0.000210256	0.999665	0.00012812	0.00030006	0.00040002	0	0	0.993702
26.3881	0.000103082	0.999785	0.000115945	0.00030003	0.00020004	0	0	0.993666
26.9159	5.05305e-05	0.999709	0.000243831	0.00060003	0.00010002	0	0	0.993631
27.4542	4.95347e-05	0.999792	0.000162348	0.00020006	0.00010001	0	0	0.993596
28.0033	0.000194239	0.999655	0.000154781	0.00040002	0.00040001	0	0	0.993562
28.5633	9.5232e-05	0.999723	0.000185137	0.00030004	0.00020004	0	0	0.993528
29.1346	9.33553e-05	0.99951	0.000400286	0.00060003	0.00020002	0	0	0.993495
29.7173	4.5767e-05	0.999565	0.000392438	0.00090006	0.00010002	0	0	0.993462
30.3117	0.000224308	0.999232	0.00054674	0.00140009	0.00050001	0	0	0.993429
30.9179	0.000175946	0.999331	0.000496621	0.00120014	0.00040005	0	0	0.993397
31.5362	0.00021561	0.999266	0.000521318	0.00120012	0.00050004	0	0	0.993366
32.167	0.000211387	0.999582	0.0002099	0.00050012	0.00050005	0	0	0.993335
32.8103	0.000248686	0.999568	0.0001865	0.00050005	0.00060005	0	0	0.993304
33.4665	0.000162551	0.99933	0.000510154	0.00130005	0.00040006	0	0	0.993274
34.1358	0.000318696	0.999113	0.000571246	0.00130013	0.00080004	0	0	0.993244
34.8186	0.000273408	0.999363	0.000366132	0.00120013	0.00070008	0	0	0.993214
35.5149	0.000114891	0.999515	0.000373044	0.00110012	0.00030007	0	0	0.993185
36.2252	0.000187698	0.9995	0.000314898	0.00110011	0.00050003	0	0	0.993157
36.9497	0.000515237	0.999174	0.000313835	0.00090011	0.00140005	0	0	0.993128
37.6887	0.000216529	0.999418	0.000368566	0.00100009	0.00060014	0	0	0.9931
38.4425	0.00014151	0.999529	0.000331616	0.0011001	0.00040006	0	0	0.993073
39.2114	0.000277444	0.99922	0.000505492	0.00160011	0.00080004	0	0	0.993046
39.9956	0.000340015	0.999148	0.000514705	0.00150016	0.00100008	0	0	0.993019
40.7955	0.00026669	0.999159	0.000576369	0.00180015	0.0008001	0	0	0.992993
41.6114	0.000326812	0.999109	0.000566656	0.00190018	0.00100008	0	0	0.992967
42.4436	0.000250185	0.999357	0.000394912	0.00130019	0.0006001	0.0001	0	0.992941
43.2925	0.00031412	0.999288	0.000400255	0.00110013	0.00100006	1e-08	0	0.992916
44.1584	0.000456026	0.999174	0.000372306	0.00110011	0.0013001	0.0001	0	0.992891
45.0415	0.000211374	0.999253	0.000537549	0.00180011	0.00070013	1e-08	0	0.992866
45.9424	0.00055102	0.999014	0.000436982	0.00160018	0.00150007	0.0002	0	0.992842
46.8612	0.000406301	0.999072	0.000523527	0.00180016	0.00140015	2e-08	0	0.992818
47.7984	0.000256078	0.999133	0.000613227	0.00220018	0.00090014	2e-12	0	0.992795
48.7544	0.000418387	0.999202	0.000381757	0.00170022	0.00150009	2e-16	0	0.992771
49.7295	0.000437544	0.998922	0.000642014	0.00280017	0.00160015	2e-20	0	0.992748
50.7241	0.000589814	0.998892	0.000520147	0.00210028	0.00220016	2e-24	0	0.992726
51.7386	0.000473136	0.998973	0.000555394	0.00200021	0.00180022	2e-28	0	0.992703
52.7733	0.000500545	0.998926	0.000575818	0.0018002	0.00140018	0.0003	0	0.992681
53.8288	0.00062674	0.998816	0.000558738	0.00210018	0.00230014	0.00010003	0	0.99266
54.9054	0.000594451	0.998904	0.000503753	0.00200021	0.00240023	1.0003e-08	0	0.992638
56.0035	0.000339987	0.999118	0.000543955	0.0020002	0.00140024	1.0003e-12	0	0.992617
57.1235	0.000476124	0.998761	0.000764226	0.0034002	0.00200014	1.0003e-16	0	0.992596
58.266	0.000555674	0.998698	0.000748107	0.00330034	0.0022002	0.0001	0	0.992576
59.4313	0.000682068	0.998622	0.000698006	0.00320033	0.00280022	0.00010001	0	0.992556
60.62	0.000395224	0.998797	0.000809406	0.00380032	0.00140028	0.00020001	0	0.992536
61.8324	0.000589594	0.998583	0.000828662	0.00410038	0.00250014	0.00010002	0	0.992516
63.069	0.000918883	0.998307	0.00077588	0.00370041	0.00390025	0.00020001	0	0.992496
64.3304	0.000689522	0.998491	0.000820998	0.00400037	0.00290039	0.00020002	0	0.992477
65.617	0.000717428	0.998672	0.000611914	0.0033004	0.00310029	0.00020002	0	0.992458
66.9293	0.000870618	0.998406	0.000725344	0.00350033	0.00320031	0.00060002	0	0.99244
68.2679	0.00073325	0.998105	0.00116289	0.00540035	0.00350032	0.00010006	0	0.992421
69.6333	0.000676056	0.998434	0.000891239	0.00440054	0.00310035	0.00020001	0	0.992403
71.0259	0.001031	0.998214	0.000756366	0.00400044	0.00430031	0.00060002	0	0.992385
72.4465	0.000942946	0.998283	0.000775947	0.0044004	0.00430043	0.00040006	0	0.992368
73.8954	0.000894711	0.998288	0.000818365	0.00450044	0.00450043	0.00020004	0	0.99235
75.3733	0.000642634	0.99841	0.000948525	0.00550045	0.00320045	0.00020002	0	0.992333
76.8808	0.00109738	0.997982	0.000922434	0.00510055	0.00490032	0.00050002	0.0001	0.992316
78.4184	0.000763082	0.99821	0.00102874	0.00630051	0.00400049	5.0002e-08	0.00010001	0.9923
79.9867	0.000741563	0.998309	0.000951193	0.00600063	0.0040004	0.0002	1.0001e-08	0.992283
81.5865	0.00100716	0.997933	0.00106159	0.0069006	0.0051004	0.00030002	0.0001	0.992267
83.2182	0.000794495	0.998157	0.00104986	0.00670069	0.00450051	0.00020003	1e-08	0.992251
84.8826	0.00116337	0.99784	0.000997677	0.00650067	0.00570045	0.00020002	0.0003	0.992235
86.5802	0.00093341	0.997916	0.00115175	0.00690065	0.00460057	0.00030002	0.00020003	0.99222
88.3118	0.00112474	0.998018	0.000858531	0.00540069	0.00560046	0.00050003	0.00020002	0.992204
90.0781	0.0011207	0.997941	0.0009394	0.00580054	0.00590056	0.00040005	0.00020002	0.992189
91.8796	0.00100993	0.997841	0.00114986	0.00830058	0.00530059	0.00040004	0.00020002	0.992174
93.7172	0.00104816	0.998007	0.000945947	0.00760083	0.00650053	0.00040004	2.0002e-08	0.992159
95.5916	0.00118136	0.997851	0.000968493	0.00720076	0.00660065	0.00050004	0.0002	0.992145
97.5034	0.00135881	0.997582	0.0010601	0.00800072	0.00840066	0.00030005	0.00020002	0.992131
99.4535	0.00120126	0.997675	0.00112506	0.0078008	0.00770084	0.00060003	2.0002e-08	0.992117
101.443	0.00116943	0.99771	0.00112189	0.00890078	0.00720077	0.00040006	0.0002	0.992103
103.471	0.00149682	0.997348	0.00115602	0.00940089	0.00940072	0.00110004	2e-08	0.992089
105.541	0.00126084	0.997485	0.00125513	0.0102009	0.00830094	0.00060011	0.0001	0.992075
107.652	0.00131431	0.997496	0.00119087	0.00940102	0.00750083	0.00050006	0.00050001	0.992062
109.805	0.00131331	0.99738	0.00130804	0.0109009	0.00850075	0.00050005	0.00030005	0.992049
112.001	0.00156214	0.997141	0.00129833	0.0107011	0.0104009	0.00070005	0.00030003	0.992036
114.241	0.00148621	0.997247	0.00126742	0.0117011	0.010601	0.00060007	0.00020003	0.992023
116.526	0.00144092	0.997372	0.00118843	0.0108012	0.00930106	0.00080006	0.00040002	0.99201
118.856	0.00134182	0.997193	0.00146584	0.0138011	0.00970093	0.00090008	0.00010004	0.991998
121.233	0.00170423	0.99697	0.00132712	0.0121014	0.010301	0.00160009	0.00050001	0.991986
123.658	0.00145681	0.997271	0.00127338	0.0123012	0.011401	0.00080016	0.00010005	0.991973
126.131	0.00146721	0.997069	0.00146455	0.0143012	0.0114011	0.00100008	0.00010001	0.991961
128.654	0.00150592	0.997062	0.00143341	0.0141014	0.0112011	0.0008001	0.00040001	0.99195
131.227	0.00156966	0.997266	0.00116546	0.0118014	0.0125011	0.00080008	0.00030004	0.991938
133.851	0.00182724	0.996727	0.00144668	0.0141012	0.0153013	0.00060008	0.00040003	0.991927
136.528	0.00136588	0.997067	0.00156771	0.0162014	0.0102015	0.00150006	0.00020004	0.991915
139.259	0.00214162	0.996817	0.00104196	0.0115016	0.016601	0.00140015	0.00070002	0.991904
142.044	0.00167482	0.99683	0.00149573	0.0165012	0.0138017	0.00160014	0.00020007	0.991893
144.885	0.00159245	0.996897	0.0015117	0.0175017	0.0129014	0.00070016	0.00070002	0.991882
147.783	0.00176756	0.9966	0.00163292	0.0192018	0.0142013	0.00100007	0.00080007	0.991871
150.738	0.00186997	0.996581	0.00154966	0.0180019	0.0163014	0.0009001	0.00070008	0.991861
153.753	0.00184591	0.996529	0.00162577	0.0185018	0.0159016	0.00120009	0.00070007	0.991851
156.828	0.00212221	0.996251	0.00162779	0.0203019	0.0170016	0.00170012	0.00110007	0.99184
159.965	0.00210742	0.996319	0.00157474	0.020002	0.0192017	0.00110017	0.00090011	0.99183
163.164	0.00188982	0.996592	0.00151881	0.019202	0.0176019	0.00170011	0.00050009	0.99182
166.427	0.00211734	0.996155	0.00172881	0.0229019	0.0208018	0.00150017	0.00060005	0.99181
169.756	0.00234699	0.996105	0.00154917	0.0203023	0.0203021	0.00210015	0.00130006	0.991801
173.151	0.0018298	0.996474	0.00169696	0.023002	0.016702	0.00210021	0.00070013	0.991791
176.614	0.00182584	0.996526	0.00164856	0.0219023	0.0178017	0.00150021	0.00080007	0.991782
180.146	0.00199064	0.996186	0.00182412	0.0246022	0.0202018	0.00120015	0.00100008	0.991772
183.749	0.00213724	0.996206	0.00165721	0.0233025	0.022502	0.00220012	0.0006001	0.991763
187.424	0.00236379	0.995988	0.00164895	0.0234023	0.0238023	0.00220022	0.00120006	0.991754
191.173	0.00224497	0.995935	0.00182096	0.0261023	0.0242024	0.00230022	0.00080012	0.991745
194.996	0.00220764	0.995834	0.00195931	0.0294026	0.0224024	0.00180023	0.00150008	0.991736
198.896	0.00224771	0.995835	0.00191775	0.0294029	0.0242022	0.00170018	0.00140015	0.991728
202.874	0.00230858	0.995818	0.00187382	0.0288029	0.0253024	0.00240017	0.00120014	0.991719
206.931	0.00254211	0.995698	0.00176051	0.0281029	0.0278025	0.00270024	0.00150012	0.99171
211.07	0.00218481	0.995989	0.00182665	0.0286028	0.0238028	0.00360027	0.00090015	0.991702
215.291	0.00239261	0.99569	0.00191856	0.0322029	0.0267024	0.00220036	0.00180009	0.991694
219.597	0.00246481	0.99564	0.00189539	0.0315032	0.0291027	0.00260022	0.00150018	0.991686
223.989	0.00215195	0.995919	0.00192993	0.0342032	0.0250029	0.00290026	0.00130015	0.991678
228.469	0.00235628	0.995695	0.00194901	0.0343034	0.0270025	0.00320029	0.00170013	0.99167
233.038	0.00258122	0.99532	0.00209982	0.0387034	0.0314027	0.00400032	0.00140017	0.991662
237.699	0.00253942	0.995531	0.00193009	0.0356039	0.0330031	0.0032004	0.00140014	0.991654
242.453	0.0029834	0.994898	0.00211916	0.0397036	0.0361033	0.00370032	0.00260014	0.991647
247.302	0.00283276	0.995099	0.00206913	0.039904	0.0341036	0.00410037	0.00250026	0.991639
252.248	0.00277078	0.995308	0.00192209	0.036904	0.0330034	0.00420041	0.00270025	0.991632
257.293	0.00265565	0.995351	0.00199359	0.0389037	0.0378033	0.00290042	0.00180027	0.991625
262.439	0.00264941	0.995297	0.00205446	0.0420039	0.0360038	0.00350029	0.00220018	0.991618
267.688	0.00274206	0.995175	0.00208392	0.0438042	0.0374036	0.00430035	0.00220022	0.991611
273.042	0.0027272	0.995136	0.00213737	0.0475044	0.0396037	0.00440043	0.00180022	0.991604
278.502	0.0028497	0.995111	0.00203982	0.0436048	0.039104	0.00490044	0.00260018	0.991597
284.072	0.00258007	0.99529	0.00213033	0.0478044	0.0391039	0.00420049	0.00180026	0.99159
289.754	0.00298937	0.99473	0.00228123	0.0504048	0.0405039	0.00420042	0.00390018	0.991583
295.549	0.00295929	0.994691	0.00235069	0.053905	0.0465041	0.00410042	0.00260039	0.991577
301.46	0.00306488	0.994675	0.00226109	0.0524054	0.0457047	0.00500041	0.00330026	0.99157
307.489	0.00315704	0.994516	0.00232731	0.0559052	0.0462046	0.0053005	0.00390033	0.991564
313.639	0.00309116	0.994758	0.00215155	0.0521056	0.0499046	0.00630053	0.00250039	0.991557
319.912	0.00314532	0.994637	0.00221837	0.0555052	0.051405	0.00630063	0.00280025	0.991551
326.31	0.0034595	0.994205	0.00233601	0.0597056	0.0506051	0.00620063	0.00530028	0.991545
332.836	0.00327513	0.994462	0.0022639	0.058506	0.0531051	0.00700062	0.00360053	0.991539
339.493	0.00322813	0.994483	0.00228969	0.0594059	0.0553053	0.0058007	0.00370036	0.991533
346.283	0.00323266	0.994478	0.00229031	0.0616059	0.0534055	0.00670058	0.00420037	0.991527
353.208	0.00321727	0.994593	0.00219067	0.0591062	0.0572053	0.00750067	0.00320042	0.991521
360.272	0.00309308	0.994594	0.0023134	0.0628059	0.0550057	0.00760075	0.00330032	0.991516
367.478	0.00326413	0.994333	0.00240338	0.0683063	0.0597055	0.00780076	0.00360033	0.99151
374.827	0.00336145	0.994206	0.0024329	0.0709068	0.062706	0.00860078	0.00360036	0.991504
382.324	0.00344135	0.994255	0.00230452	0.0704071	0.0639063	0.00600086	0.00550036	0.991499
389.971	0.00327829	0.994423	0.00229929	0.070407	0.0614064	0.0083006	0.00440055	0.991493
397.77	0.00339046	0.994272	0.00233841	0.071807	0.0634061	0.00850083	0.00510044	0.991488
405.725	0.00376176	0.993658	0.00258035	0.0823072	0.0705063	0.00870085	0.00650051	0.991483
413.84	0.00356587	0.993969	0.00246616	0.0798082	0.0691071	0.0114009	0.00470065	0.991478
422.117	0.00350941	0.994197	0.00229421	0.074408	0.0716069	0.00870114	0.00540047	0.991472
430.559	0.00343996	0.994078	0.00248212	0.0852074	0.0701072	0.00620087	0.00690054	0.991467
439.17	0.00404447	0.993393	0.00256347	0.0891085	0.080007	0.0114006	0.00750069	0.991462
447.954	0.00378564	0.993752	0.00246283	0.0852089	0.081308	0.00940114	0.00660075	0.991457
456.913	0.00375306	0.993618	0.00262962	0.0955085	0.0827081	0.00940094	0.00660066	0.991453
466.051	0.00375242	0.993772	0.00247626	0.0898096	0.0784083	0.00940094	0.00830066	0.991448
475.372	0.00375897	0.993629	0.00261217	0.096909	0.0825078	0.0120009	0.00680083	0.991443
484.879	0.00365861	0.993705	0.00263679	0.10041	0.0867083	0.0107012	0.00610068	0.991438
494.577	0.00397371	0.993419	0.00260769	0.09991	0.0886087	0.0119011	0.00860061	0.991434
504.468	0.00388423	0.993446	0.00267045	0.10451	0.0920089	0.0131012	0.00710086	0.991429
514.558	0.00403472	0.993377	0.00258883	0.10401	0.0953092	0.0127013	0.00860071	0.991425
524.849	0.00394647	0.993339	0.00271549	0.11151	0.0983095	0.0135013	0.00740086	0.99142
535.346	0.00418123	0.993051	0.00276863	0.115111	0.10101	0.0146014	0.00930074	0.991416
546.053	0.00399612	0.993298	0.00270647	0.116612	0.10141	0.0143015	0.00830093	0.991412
556.974	0.00416508	0.993118	0.00271744	0.117612	0.10891	0.0131014	0.00950083	0.991408
568.113	0.0041595	0.993097	0.00274432	0.120212	0.107311	0.0153013	0.00970095	0.991403
579.476	0.00435439	0.992854	0.00279208	0.126012	0.112111	0.0154015	0.011401	0.991399
591.065	0.00422533	0.993119	0.00265605	0.120813	0.113411	0.0154015	0.0106011	0.991395
602.886	0.00409892	0.993107	0.002795	0.131612	0.119211	0.0140015	0.00930106	0.991391
614.944	0.004292	0.993053	0.00265577	0.129713	0.120012	0.0173014	0.0107009	0.991387
627.243	0.00408412	0.993141	0.00277557	0.136513	0.118112	0.0163017	0.0102011	0.991383
639.788	0.00453589	0.992652	0.00281253	0.139914	0.129312	0.0193016	0.012301	0.99138
652.584	0.00440996	0.992809	0.00278194	0.141314	0.127513	0.0171019	0.0133012	0.991376
665.635	0.00462001	0.992466	0.00291413	0.151814	0.143513	0.0165017	0.0132013	0.991372
678.948	0.00421396	0.992718	0.0030686	0.164715	0.130014	0.0199017	0.0111013	0.991368
692.527	0.00440499	0.992773	0.00282304	0.154616	0.136713	0.019702	0.0130011	0.991365
706.378	0.00455674	0.992463	0.00298133	0.163115	0.150414	0.018302	0.0133013	0.991361
720.505	0.00459215	0.992348	0.00306046	0.172716	0.148115	0.0219018	0.0139013	0.991358
734.915	0.00465263	0.992294	0.00305398	0.173017	0.158315	0.0212022	0.0137014	0.991354
749.614	0.00472251	0.992263	0.00301466	0.179817	0.151016	0.0213021	0.0177014	0.991351
764.606	0.00453088	0.99245	0.00301998	0.176218	0.164415	0.0201021	0.0135018	0.991347
779.898	0.00464477	0.992263	0.00309304	0.186718	0.164916	0.023602	0.0147014	0.991344
795.496	0.00476147	0.992277	0.00296217	0.183919	0.174116	0.0228024	0.0158015	0.991341
811.406	0.00478408	0.992097	0.00311996	0.198218	0.172817	0.0227023	0.0179016	0.991337
827.634	0.00482339	0.992009	0.00316869	0.20662	0.185017	0.0253023	0.0157018	0.991334
844.187	0.0047933	0.992164	0.00304307	0.201421	0.184819	0.0232025	0.0177016	0.991331
861.07	0.00479076	0.991985	0.0032247	0.21502	0.187118	0.0269023	0.0169018	0.991328
878.292	0.00490382	0.991875	0.00322151	0.217322	0.192719	0.0281027	0.0183017	0.991325
895.858	0.00491207	0.992024	0.00306491	0.214422	0.195119	0.0277028	0.0196018	0.991322
913.775	0.00490734	0.991817	0.00327608	0.237021	0.20432	0.0269028	0.019202	0.991319
932.05	0.00481546	0.9921	0.00308499	0.226724	0.20082	0.0290027	0.0192019	0.991316
950.691	0.00492541	0.991743	0.00333216	0.249823	0.20672	0.0301029	0.0208019	0.991313
969.705	0.00494588	0.99183	0.0032246	0.240625	0.215521	0.028303	0.0215021	0.99131
989.099	0.00484686	0.991787	0.00336679	0.259624	0.226222	0.0296028	0.0182022	0.991307
1008.88	0.00494847	0.991833	0.0032188	0.252026	0.231323	0.033303	0.0189018	0.991304
1109.77	0.00509181	0.991571	0.00333819	0.291225	0.249723	0.0322033	0.0269019	0.991292
1220.75	0.00537289	0.991233	0.0033949	0.325729	0.289125	0.0427032	0.0290027	0.99128
1342.82	0.00538291	0.99105	0.00356763	0.373933	0.324829	0.0473043	0.0303029	0.991268
1477.1	0.00543874	0.991025	0.00353665	0.408737	0.354932	0.0519047	0.035503	0.991258
1624.81	0.0056979	0.990697	0.00360559	0.460341	0.415535	0.0569052	0.0406036	0.991248
1787.29	0.00591713	0.990396	0.00368743	0.520946	0.455442	0.0705057	0.0487041	0.991239
1966.02	0.00584205	0.9904	0.00375855	0.583552	0.495946	0.0840071	0.0492049	0.99123
2162.63	0.00593555	0.990245	0.00381986	0.640658	0.56295	0.0875084	0.0557049	0.991222
2378.89	0.00612447	0.989989	0.00388678	0.733864	0.631356	0.0998088	0.0649056	0.991214
2616.78	0.00615403	0.989985	0.00386132	0.797573	0.692563	0.11221	0.0722065	0.991207
2878.46	0.00632815	0.989534	0.00413813	0.94408	0.791669	0.123811	0.0810072	0.991201
3166.3	0.00641654	0.989431	0.00415291	1.03809	0.865979	0.141412	0.0931081	0.991194
3482.93	0.0065975	0.98916	0.00424314	1.1616	0.983687	0.162014	0.103309	0.991189
3831.22	0.0066088	0.989053	0.0043388	1.31232	1.0837	0.183116	0.11181	0.991183
4214.35	0.00686459	0.988826	0.00430974	1.44003	1.22261	0.210418	0.131111	0.991178
4635.78	0.00692679	0.988707	0.00436732	1.60304	1.33602	0.233721	0.150713	0.991173
5099.36	0.00713959	0.988327	0.00453449	1.82996	1.51933	0.261723	0.171215	0.991169
5609.3	0.00727431	0.988205	0.00452146	2.01798	1.68175	0.296726	0.195617	0.991165
6170.23	0.00738357	0.987954	0.00466299	2.2811	1.86997	0.34353	0.21482	0.991161
6787.25	0.00739595	0.987897	0.00470746	2.53013	2.07249	0.366034	0.239321	0.991157
7465.97	0.00753297	0.98769	0.00477788	2.83915	2.31461	0.427237	0.262224	0.991154
8212.57	0.0076885	0.987511	0.0048007	3.12398	2.60233	0.484643	0.291226	0.991151
9033.83	0.00778611	0.9873	0.00491412	3.51401	2.88876	0.540148	0.326829	0.991148
9937.21	0.00786323	0.987141	0.00499661	3.93615	3.17759	0.606954	0.367833	0.991145